acc_x[mg],acc_y[mg],acc_z[mg]
-16.310,78.016,-907.399
-17.189,87.127,-1022.287
-18.964,86.985,-977.203
-15.929,88.108,-1004.236
-13.035,83.886,-988.543
-18.556,89.281,-1001.387
-17.076,84.970,-988.704
-17.249,84.559,-995.970
-11.460,87.567,-988.150
-15.898,85.589,-994.833
-17.963,85.861,-994.447
-11.223,87.159,-991.709
-15.285,82.085,-994.501
-15.984,83.582,-996.719
-16.555,83.257,-990.291
-12.575,85.363,-992.801
-16.895,86.555,-994.656
-15.928,86.228,-993.602
-12.658,81.583,-991.645
-11.213,86.837,-991.334
-13.797,84.904,-988.443
-14.655,79.208,-993.979
-7.840,83.669,-990.553
-11.270,86.532,-993.184
-11.877,87.609,-987.766
-9.271,85.244,-1001.561
-11.947,84.596,-993.128
-13.917,87.027,-993.134
-11.485,81.122,-991.435
-11.654,87.843,-994.361
-11.675,84.318,-991.407
-12.866,85.014,-995.378
-12.609,87.617,-990.949
-11.528,86.753,-991.609
-13.618,83.950,-995.851
-15.367,86.539,-996.384
-10.713,84.756,-995.055
-14.980,85.470,-996.636
-12.304,84.980,-997.293
-14.808,82.583,-993.155
-12.652,86.048,-992.733
-8.783,84.144,-989.824
-12.104,86.376,-994.751
-11.659,86.978,-998.469
-11.807,86.239,-990.871
-13.318,84.871,-992.459
-10.406,83.590,-995.602
-10.738,86.449,-993.306
-10.181,81.246,-987.299
-12.452,86.294,-996.622
-13.224,76.186,-993.642
-9.741,86.317,-989.901
-16.037,91.650,-990.315
-5.269,84.674,-993.777
-11.756,80.198,-997.610
-9.880,81.310,-991.240
-11.897,83.384,-991.457
-8.390,88.660,-995.748
-15.513,82.913,-992.777
-14.589,86.062,-995.387
-10.774,79.215,-992.375
-7.348,81.340,-992.946
-13.170,84.284,-991.489
-6.484,84.692,-993.424
-13.036,81.023,-988.046
-10.297,85.938,-999.644
-8.126,74.517,-1007.904
-18.253,70.046,-988.170
-7.110,90.260,-993.789
-9.310,80.457,-990.257
-7.618,87.495,-992.766
-9.790,82.991,-993.989
-5.962,80.898,-992.876
-6.567,86.956,-991.719
-7.258,80.618,-993.800
-6.874,79.005,-989.375
-10.322,81.450,-993.379
-7.541,81.723,-990.994
-8.559,84.116,-992.843
-10.288,77.800,-989.504
-6.657,85.126,-994.645
-9.441,81.725,-989.620
-6.513,80.726,-996.591
-12.727,83.182,-991.036
-7.666,84.169,-995.993
-7.112,80.678,-992.899
-14.403,85.751,-993.686
-8.203,83.161,-993.496
-12.601,79.714,-991.273
-7.547,83.764,-996.191
-8.140,82.249,-991.320
-13.159,81.948,-989.532
-6.720,85.956,-997.359
-5.129,79.494,-991.894
-11.077,83.447,-994.680
-8.358,82.687,-991.572
-5.214,77.584,-998.146
-6.082,81.563,-992.960
-3.822,79.706,-997.581
-8.480,80.146,-992.062
-8.389,84.101,-991.418
-7.932,81.007,-997.202
-7.072,80.309,-991.746
-7.456,81.403,-994.482
-2.652,81.534,-992.783
-5.025,84.274,-993.342
-3.165,82.841,-994.825
-6.880,83.143,-992.685
-2.826,81.770,-992.232
-8.474,78.630,-990.914
-3.944,80.055,-990.559
-5.240,80.785,-994.738
-5.400,78.202,-993.870
-6.784,82.036,-994.101
-3.391,84.490,-990.205
-6.979,80.190,-992.597
-6.991,80.872,-990.499
-5.401,81.556,-991.343
-8.764,83.401,-992.083
-5.994,81.848,-993.588
-2.432,80.381,-994.520
-11.647,81.023,-991.916
-7.539,82.090,-993.741
-7.241,81.985,-993.370
-6.402,78.392,-990.520
-7.212,85.880,-990.018
-5.875,81.075,-991.477
-5.087,83.136,-990.404
-9.438,81.485,-993.786
-1.135,82.011,-991.839
-5.079,82.766,-993.705
-6.089,82.972,-993.017
-9.188,82.450,-993.276
-6.020,83.444,-988.671
-5.997,82.495,-998.565
-7.713,78.837,-992.300
-6.628,77.835,-995.896
-6.001,81.564,-994.370
-6.880,82.125,-993.359
-9.008,82.983,-988.759
-7.838,83.315,-995.145
-4.632,82.287,-992.231
-7.165,83.665,-994.519
-8.033,86.202,-992.486
-8.283,82.405,-993.573
-8.334,80.141,-994.813
-9.482,82.887,-994.077
-7.069,79.049,-993.543
-4.550,81.048,-991.342
-8.120,85.116,-993.222
-5.662,84.267,-992.747
-4.102,81.431,-989.059
-7.886,80.491,-989.512
-4.926,82.606,-995.527
-6.766,84.799,-989.857
-6.881,79.853,-993.369
-3.184,82.258,-990.412
-6.080,81.123,-992.056
-5.235,79.700,-989.042
-6.318,78.723,-995.293
-6.091,79.118,-994.614
-4.403,80.420,-995.772
-3.769,81.311,-994.677
-4.922,82.144,-993.899
-2.764,83.183,-992.556
-2.143,83.402,-993.767
-7.299,79.920,-991.395
-3.453,83.894,-992.982
-3.261,80.620,-992.047
-3.844,78.504,-990.872
-3.082,84.603,-992.604
-0.492,81.651,-994.077
-4.522,79.283,-993.608
-0.309,81.662,-991.938
-3.295,82.841,-989.326
-1.506,80.325,-993.609
-0.941,80.282,-996.780
-3.191,78.192,-995.154
-3.072,79.233,-992.086
2.639,79.702,-994.609
-4.478,78.000,-988.596
-3.281,80.433,-992.435
-2.852,80.597,-994.991
-5.817,76.956,-993.811
0.672,83.820,-994.569
-1.705,80.615,-990.344
-2.381,79.385,-995.618
-0.893,77.382,-995.739
-1.131,79.700,-996.388
-5.304,78.454,-993.000
4.091,81.652,-996.793
0.163,80.025,-992.098
1.906,76.695,-996.691
-3.823,78.887,-990.671
-0.894,78.239,-998.366
-2.127,81.466,-989.428
2.683,75.317,-997.518
-1.580,78.877,-994.915
2.029,78.544,-997.937
-1.657,79.345,-993.844
1.649,76.766,-996.980
-2.196,80.977,-994.360
-17.559,83.323,-992.827
-47.280,79.103,-948.665
-59.154,83.078,-1000.747
-837.211,514.164,-948.718
-781.091,-19.940,-1522.445
-761.818,79.112,-1433.642
-578.529,168.658,-732.229
-879.416,244.039,-278.243
-442.615,222.772,-628.321
-144.992,526.116,-646.187
-230.531,253.530,532.664
67.806,184.116,988.598
-323.293,172.296,1345.543
204.482,166.504,965.568
66.646,59.872,1102.435
286.886,146.566,631.574
230.887,-63.788,1405.238
414.513,-81.922,1064.023
140.348,128.547,450.662
-234.548,-241.064,1745.769
638.514,-89.314,929.878
-66.016,-65.399,1076.215
461.649,-5.836,771.118
60.512,-31.381,1062.265
176.817,-46.620,1047.317
103.788,-53.438,971.796
130.316,-45.589,1017.853
149.355,-83.926,963.008
139.515,-77.132,1030.160
78.436,-62.464,975.180
113.574,-67.868,990.946
65.089,-69.328,1005.333
94.721,-80.665,1002.960
109.930,-90.988,988.159
74.972,-64.447,1015.321
42.498,-60.630,978.255
84.022,-84.135,1002.873
52.768,-65.342,983.463
72.466,-69.014,1002.298
42.662,-72.438,990.132
66.838,-69.838,1000.650
41.617,-69.569,979.933
51.582,-70.099,997.424
28.502,-81.166,1008.009
52.168,-80.040,994.173
23.959,-77.315,994.139
44.150,-80.997,1003.960
8.742,-93.956,999.694
39.881,-78.387,998.218
6.299,-95.461,987.913
50.483,-62.203,997.799
-123.514,-135.017,994.153
-44.811,-105.512,995.705
39.269,-77.432,1000.154
9.873,-97.553,997.054
32.628,-77.152,994.795
8.060,-88.827,995.301
26.722,-78.586,995.195
7.285,-90.210,994.638
19.875,-80.051,996.019
12.685,-85.225,993.666
24.662,-79.357,995.015
14.361,-85.444,998.288
21.281,-84.021,995.011
14.454,-88.856,998.642
20.538,-83.045,990.797
16.368,-88.514,997.705
15.672,-86.445,989.911
10.779,-83.001,1000.602
17.015,-82.071,983.472
17.568,-83.122,1007.205
19.025,-81.439,977.986
15.980,-85.257,1028.181
