acc_x[mg],acc_y[mg],acc_z[mg]
19.234,-0.115,930.478
19.831,0.358,1026.368
22.839,0.012,987.977
23.831,-5.786,1003.137
22.746,-0.523,991.189
19.572,-2.350,1006.297
21.644,0.183,992.183
20.572,0.130,1003.988
20.780,0.968,1000.159
23.916,0.659,1000.155
22.541,3.076,996.907
21.494,3.692,998.268
22.572,2.017,994.759
25.138,0.822,1003.108
19.094,-1.811,996.462
20.918,0.669,999.243
19.663,1.054,995.689
20.774,-2.149,998.580
20.900,1.429,994.588
20.883,1.813,999.874
24.507,-0.368,998.713
18.781,2.725,999.843
20.857,1.668,996.923
21.194,3.137,1001.873
19.224,-0.485,998.861
22.164,0.473,995.654
22.097,-0.492,997.042
28.732,1.542,999.737
21.903,5.556,1003.456
26.853,1.591,1001.572
22.233,-3.270,993.940
22.022,3.129,999.986
24.547,3.259,999.005
19.782,1.459,998.022
21.401,-0.523,1000.267
23.052,2.106,995.210
21.102,-2.488,1002.065
22.985,-4.715,994.686
25.766,1.545,1000.430
18.159,2.377,998.409
21.791,1.680,1000.460
18.905,2.429,999.066
19.523,-2.630,997.703
21.469,1.685,1000.285
23.729,-2.574,997.735
21.701,-3.102,1001.047
21.556,3.334,996.072
19.697,0.234,997.330
19.276,0.195,998.587
20.462,-0.041,1004.052
22.235,-1.125,995.283
19.836,-1.645,998.438
22.113,0.035,997.167
19.727,1.000,1002.604
20.405,0.045,1002.604
22.486,0.115,1000.620
23.379,2.463,997.566
26.569,1.680,999.036
18.695,0.983,996.525
19.609,3.623,997.387
21.000,5.173,1001.789
23.226,1.665,999.590
23.044,0.436,994.248
19.905,2.182,998.773
22.285,0.357,998.854
20.395,-0.387,1001.575
30.657,-3.983,1000.067
17.705,3.663,1000.139
21.330,3.683,997.823
21.979,-0.270,1000.768
22.910,0.499,996.974
21.818,2.468,1000.037
20.590,1.502,999.332
23.357,-1.797,995.728
23.643,2.044,997.202
19.829,-0.106,999.180
20.848,0.749,998.404
21.221,-2.078,1001.468
20.611,1.983,995.807
24.066,0.777,999.322
23.689,-1.116,997.643
22.293,1.008,997.485
22.337,0.796,995.179
21.348,-1.351,997.242
22.178,0.906,999.006
21.796,-0.500,1001.190
21.810,0.187,1000.155
24.325,0.645,997.606
18.480,0.750,998.019
24.292,-0.934,998.084
21.657,-1.231,999.971
23.813,0.585,1002.157
18.975,0.906,1000.641
23.571,-3.897,1000.907
21.730,2.899,997.780
23.799,0.886,999.609
27.951,-0.915,1002.879
26.287,-1.329,998.033
18.198,0.393,1001.573
18.767,0.362,993.977
20.958,-2.485,995.959
24.193,0.833,995.813
21.455,-0.699,999.764
21.011,3.118,996.168
21.703,1.400,1002.791
22.310,-3.395,994.791
21.346,2.948,1000.248
23.755,0.781,995.532
21.163,0.846,1000.596
18.501,6.276,998.145
24.567,1.244,997.157
23.344,0.491,999.910
19.525,5.375,998.617
18.069,-1.528,1000.004
22.460,2.040,995.359
21.738,0.813,996.010
20.296,-1.246,996.841
20.791,2.200,1002.598
21.548,2.658,1000.262
20.107,-0.555,1001.497
22.760,-0.116,996.705
23.801,1.569,999.224
21.706,-4.280,998.450
22.906,-0.462,998.443
25.204,-0.484,998.309
17.620,-0.678,995.753
19.984,1.173,1003.261
24.223,-0.980,1002.106
19.078,1.395,999.089
23.286,-2.471,1003.519
21.419,2.271,1000.678
21.454,-1.065,1000.398
25.741,-0.696,1001.689
22.356,-0.604,999.609
21.196,-0.350,1004.294
20.222,0.490,996.451
20.754,3.432,998.581
25.905,0.219,1003.079
20.420,3.747,996.138
20.659,2.873,1001.355
22.353,5.046,1001.218
20.618,2.761,1001.128
20.689,0.241,998.336
21.150,1.452,998.642
24.048,0.150,998.537
21.234,0.971,993.917
21.018,-4.007,994.470
22.390,2.108,999.933
27.862,-2.499,999.040
19.843,-0.882,999.734
17.985,2.556,998.524
23.237,-2.293,998.153
23.139,-0.598,998.236
22.542,-4.666,1002.228
24.534,-0.261,999.455
23.032,-4.033,998.250
22.293,-0.165,995.723
25.755,-1.660,997.910
21.049,-1.447,998.934
16.502,2.403,1000.422
21.560,-3.417,996.384
19.307,-0.430,999.941
19.729,-0.191,1001.872
23.237,2.519,999.392
20.830,-5.049,997.689
21.875,1.898,993.402
23.146,-1.596,999.169
21.793,1.923,997.509
19.778,3.863,1002.401
19.289,0.397,996.648
23.850,-1.317,1000.556
21.568,0.990,998.868
23.403,-0.794,1000.007
22.110,-1.754,1002.053
22.069,0.678,1001.154
19.918,-0.451,994.151
22.017,2.506,994.884
20.890,3.987,1002.159
23.047,-1.051,998.721
18.917,-1.669,998.510
22.041,0.634,995.528
19.394,-3.895,997.752
21.642,-1.331,995.588
20.563,-1.133,1003.532
22.731,1.257,999.561
24.338,-0.873,997.070
24.555,2.508,999.906
17.902,3.354,999.750
22.321,2.555,1000.213
20.275,0.204,997.631
17.891,2.931,995.768
22.284,-2.680,996.646
22.640,-3.112,1002.973
23.532,-0.050,1001.639
30.369,15.376,1005.563
26.680,-17.443,984.954
27.125,9.857,1016.592
21.642,4.293,1001.147
23.383,0.951,999.846
22.789,0.078,994.276
20.479,2.225,998.823
23.501,1.881,1002.374
24.925,5.205,998.006
22.321,4.105,999.178
21.479,6.070,1001.520
20.089,2.543,1000.163
21.951,5.004,1002.616
21.813,8.521,1000.546
23.109,3.514,998.297
24.665,5.651,997.888
23.326,0.226,1000.623
23.004,4.140,998.751
21.389,2.210,1003.394
24.351,0.219,996.260
21.733,8.901,1002.551
29.865,6.033,1003.938
17.348,-0.470,990.815
22.915,1.445,988.413
24.295,-0.189,1001.277
28.506,2.169,1001.705
23.306,1.722,999.860
19.435,3.596,1003.106
18.591,-0.572,1001.011
18.470,3.775,1000.896
21.510,2.880,1002.665
22.201,3.506,998.508
23.084,-2.383,999.636
20.637,0.524,1002.788
22.657,-1.723,998.700
19.646,6.682,1005.423
28.409,-9.354,1004.868
20.537,3.375,1008.227
24.495,-9.545,1000.491
10.585,-3.467,1001.569
25.331,-6.029,998.637
20.540,7.260,993.757
21.864,-1.047,998.918
21.563,16.857,999.224
-2.643,32.618,995.527
37.537,-0.391,993.435
8.767,-3.713,990.952
67.685,-26.513,993.866
144.239,-37.250,997.326
11.166,-0.717,999.278
37.551,-2.828,1003.287
41.038,-2.957,993.332
29.925,-0.644,995.615
16.411,-3.196,997.109
15.709,-2.996,987.930
14.876,6.463,1013.133
21.721,-0.486,995.938
10.563,-41.840,1001.254
26.771,-40.256,1001.703
41.885,-5.833,995.174
23.290,-14.059,1000.995
36.380,-21.087,1011.054
12.981,3.562,1005.362
47.164,-15.811,984.858
17.512,14.365,1091.386
55.802,-18.787,1200.991
146.190,-21.145,1260.908
369.240,17.944,1332.499
719.555,9.160,1145.280
708.212,39.968,871.016
52.442,1.138,743.470
-547.142,43.772,717.012
-1412.137,117.334,1131.217
-1387.158,192.447,1220.445
-537.994,152.666,942.501
313.668,106.028,506.985
510.281,157.594,290.823
560.535,166.286,661.542
421.382,255.965,1090.326
163.868,12.077,922.259
420.801,169.093,1367.667
102.228,189.784,1259.070
333.709,43.680,1024.062
303.864,161.728,1354.104
256.075,-6.188,1128.584
46.152,88.397,1408.226
-395.591,160.039,1019.074
-519.183,196.286,734.935
-511.174,243.933,565.487
-58.250,149.985,421.520
229.301,98.899,912.968
284.232,70.941,1150.781
256.993,15.269,1132.774
150.293,72.112,1149.946
79.943,58.471,1033.259
13.833,66.196,976.287
-20.524,16.516,1059.595
108.832,15.736,1028.961
27.506,37.591,1071.471
15.581,13.593,961.188
47.820,-9.198,969.450
-0.617,-15.116,1000.870
41.943,-8.185,993.724
21.169,-22.226,1001.575
1.187,-19.874,1000.125
2.615,-30.965,992.498
22.677,-30.251,996.465
5.940,-8.812,1006.827
-5.664,-23.893,1007.211
22.748,-36.377,1005.149
13.697,-50.304,999.403
17.330,-20.981,999.393
19.682,-14.107,1000.836
16.915,-14.479,999.442
18.497,-12.196,998.885
18.806,-12.607,995.813
16.742,-17.191,997.028
19.508,-13.406,994.678
24.950,-13.314,1002.287
24.122,-11.627,1001.433
22.091,-10.997,1001.303
22.620,-15.690,1000.979
23.646,-11.743,997.866
20.156,-10.362,997.873
17.628,-16.490,1001.501
17.378,-13.554,1000.423
21.089,-15.534,998.564
21.258,-17.147,1002.356
14.646,-12.385,995.076
23.506,-12.880,1001.714
19.602,-15.005,999.314
19.280,-14.278,1001.157
23.123,-13.004,1000.422
24.165,-14.123,999.406
17.028,-13.900,999.808
17.103,-16.512,1000.129
18.495,-15.453,999.382
18.996,-12.717,999.047
17.694,-11.365,996.574
18.941,-13.950,994.711
17.457,-11.954,995.010
20.269,-15.569,997.443
16.551,-13.602,999.166
21.310,-14.843,995.850
19.975,-16.189,999.741
21.669,-13.269,1000.981
18.277,-10.830,1001.782
20.983,-12.645,994.579
21.331,-10.601,995.245
20.161,-13.677,996.305
19.981,-11.472,999.928
20.132,-14.066,996.209
23.721,-13.672,1001.772
23.289,-12.823,1002.583
18.317,-11.075,999.817
16.160,-15.556,996.698
17.220,-13.838,996.872
18.228,-8.379,999.176
18.306,-12.490,1005.309
17.546,-12.606,991.769
17.682,-11.658,994.587
20.730,-11.326,1003.372
21.100,-14.380,998.720
19.574,-9.623,999.245
18.439,-9.450,998.672
22.797,-11.382,998.857
18.965,-10.701,997.703
15.176,-8.160,1002.454
17.259,-11.139,1002.042
20.492,-11.295,1001.412
16.099,-10.635,998.300
18.643,-14.834,1002.102
20.239,-8.550,1000.729
16.427,-11.893,1000.662
18.348,-12.765,1000.474
20.211,-10.523,1001.676
17.998,-11.034,999.409
18.429,-7.175,1000.124
20.074,-5.160,999.141
20.021,-13.595,1001.817
15.987,-11.127,1006.582
21.370,-6.783,1002.074
17.638,-11.607,997.148
15.585,-5.807,999.865
14.947,-12.414,1006.339
21.648,-10.235,998.962
16.711,-11.629,998.187
24.733,-7.057,1001.598
18.574,-10.426,1003.990
22.583,-2.768,994.996
16.348,-7.080,1001.024
32.918,-14.846,994.337
-13.125,-8.448,1010.490
-27.768,-7.199,1007.122
38.984,-7.093,1000.395
-65.541,-19.737,934.512
23.882,-2.761,986.464
12.354,-0.619,1002.972
23.107,1.200,992.160
12.559,2.026,1004.133
30.291,8.700,996.664
2.772,11.302,1005.548
4.515,4.178,993.310
16.774,-23.330,1010.021
20.284,-4.259,998.105
20.137,-8.661,994.908
19.544,-7.185,999.915
20.470,-6.382,1003.080
15.879,-14.267,994.247
21.863,-2.231,998.109
23.399,-3.659,995.411
22.790,-3.581,999.154
20.675,-19.016,996.126
23.288,-11.573,997.950
18.468,-7.401,1000.644
23.327,-5.157,1000.621
16.789,-7.427,999.421
18.813,-7.795,999.132
21.805,-5.133,1000.780
21.191,-8.310,995.732
20.845,-5.003,1000.796
19.898,-8.030,997.893
20.456,-3.310,995.743
20.356,-12.219,996.324
17.978,-5.986,1001.924
20.257,-8.546,993.528
18.658,-3.499,1001.070
17.977,-6.520,1000.216
23.635,-8.422,994.398
22.531,-4.090,995.943
18.692,-5.691,999.280
23.389,-10.945,1002.028
21.840,-8.630,998.026
19.756,-6.833,997.779
14.192,-10.131,997.138
19.755,-3.806,998.987
20.300,-7.574,999.355
17.761,-7.336,996.632
22.322,-4.245,998.839
18.444,-8.357,1000.094
17.832,-8.479,997.853
20.284,-5.564,997.042
18.062,-4.500,1000.305
21.886,-3.576,1001.367
24.026,-6.561,997.819
20.363,-4.670,999.087
22.806,-2.004,995.786
20.471,-3.252,1000.830
19.687,-6.157,999.187
21.187,-2.569,999.685
22.623,-5.286,1002.355
22.159,-4.923,999.011
20.182,-4.063,1000.466
24.037,-4.056,1003.196
19.508,-3.760,996.238
20.419,-9.817,999.591
19.725,-5.121,1001.866
20.182,-8.823,997.886
21.647,-10.793,998.800
20.067,-8.538,999.376
19.115,-3.827,1001.874
22.114,-6.304,1000.252
18.985,-4.881,1001.163
24.355,-9.126,1003.266
20.745,-7.454,998.090
20.392,-6.622,1001.728
19.728,-8.065,996.015
21.131,-3.584,998.324
25.467,-3.565,1002.690
20.293,-3.552,996.199
17.905,-3.753,999.886
22.306,-8.000,1000.549
19.591,-5.451,1000.382
19.944,-3.644,996.418
18.993,-6.138,999.870
15.833,-10.350,996.634
24.283,-3.929,1000.560
19.242,-6.119,993.300
22.158,-3.734,1000.221
20.647,-4.230,994.663
15.601,-6.492,1003.711
20.700,-5.692,998.277
22.488,-7.646,1000.365
21.858,-1.558,993.411
23.267,-5.643,1008.301
25.269,-6.029,995.051
23.390,-4.456,1001.248
19.430,-4.776,995.626
20.588,-5.680,1006.475
20.770,-6.804,998.488
21.021,-4.859,1007.376
22.404,-3.630,989.802
19.078,-5.211,1004.912
22.837,-9.831,988.523
17.881,-5.629,1005.092
22.000,-3.573,984.706
20.267,-10.569,1013.496
18.654,-7.690,984.235
20.947,-8.033,1024.842
18.144,-2.082,962.181
23.356,-3.734,1056.880
18.619,-6.711,816.121
